# nm 	 mW/m2/nm
758.56	1251.31
759.5	1270.05
760.44	1255.71
761.38	1242.88
762.31	1237.99
763.25	1258.8
764.19	1257.99
765.12	1248.33
766.06	1193.62
767	1227.73
767.93	1241.77
768.87	1228.31
769.8	1225.49
770.74	1226.23
771.67	1220.35
772.6	1219.49
777.27	1164.85
778.2	1160.99
779.13	1171.28
780.06	1159.5
780.99	1163.58
781.92	1172.14
782.85	1156.31
783.78	1144.6
784.71	1155.99
786.57	1157.38
787.5	1151.51
788.43	1152.02
789.35	1154.52
790.28	1156.03
791.21	1140.01
792.14	1132.03
793.06	1112.53
793.99	1102.71
794.91	1121.38
795.84	1136.98
796.76	1134.1
797.69	1132.86
798.61	1131.27
799.54	1116.11
800.46	1116.9
801.38	1126.28
802.31	1119.26
803.23	1118.22
804.15	1118.7
805.08	1100.6
806	1115.63
806.92	1109.64
807.84	1106.92
808.76	1100.43
809.68	1092.14
810.6	1106.48
811.52	1108.46
812.44	1112.31
813.36	1114.85
814.28	1104.99
815.2	1103.34
816.11	1100.14
817.03	1095.62
817.95	1081.35
818.87	1067.07
819.78	1057.84
820.7	1066.97
821.61	1052.31
822.53	1074.56
823.45	1071.43
824.36	1068.96
825.28	1065.3
826.19	1069.62
827.1	1072.1
828.02	1063.4
828.93	1060.31
829.84	1055.93
830.76	1047.41
831.67	1059.88
832.58	1033.46
833.49	1016.32
834.4	1021.71
835.31	1043.1
836.22	1044.19
837.14	1041.11
838.04	1022
838.95	1022.91
839.86	1037.94
840.77	1041.5
841.68	1020.21
842.59	1010.43
843.5	990.93
844.41	1011.9
845.31	1029.24
846.22	1025.13
847.13	1000.04
848.03	1003.19
848.94	984.41
849.84	903.33
850.75	979.66
851.65	962.37
852.56	974.33
853.46	885.25
854.37	771.82
855.27	937.93
856.17	976.94
857.08	964.59
857.98	975.78
858.88	970.5
859.78	977.94
860.68	975.09
861.59	978.19
862.49	1009.31
863.39	994.47
864.29	995.14
865.19	950.54
866.09	827.45
866.99	914.64
867.88	977.93
868.78	948.86
869.68	973.31
870.58	965.23
871.48	949.37
872.37	972.91
873.27	962.19
874.17	935.36
875.04	934.76
875.12	935.12
875.2	936.64
875.27	935.68
875.35	932.51
875.43	930.4
875.5	929.09
875.58	928.64
875.66	929.85
875.73	932.83
875.81	936.44
875.89	940.9
875.96	945.36
876.04	949.26
876.12	953.01
876.19	955.2
876.27	955.47
876.35	957.62
876.42	961.34
876.5	965.19
876.58	968.91
876.66	973.19
876.73	975.03
876.81	974.81
876.89	973.07
876.96	970.11
877.04	966.43
877.12	963.58
877.19	961.32
877.27	960.57
877.35	960.86
877.42	961.77
877.5	961.73
877.58	961.68
877.66	961.24
877.73	960.64
877.81	959.95
877.89	960.26
877.96	960.73
878.04	962.29
878.12	964.55
878.19	967.03
878.27	968.91
878.35	970.58
878.43	971.12
878.5	971.06
878.58	970.13
878.66	967.4
878.73	965.32
878.81	963.22
878.89	959.6
878.97	954.75
879.04	952.39
879.12	949.87
879.2	947.47
879.28	946.1
879.35	946.93
879.43	946.82
879.51	946.09
879.59	944.77
879.66	945.55
879.74	947.35
879.82	949.16
879.89	950.54
879.97	953.83
880.05	955.47
880.13	955.41
880.2	952.15
880.28	944.56
880.36	935.78
880.44	926.87
880.51	918.72
880.59	913.53
880.67	913.45
880.75	913.16
880.82	912.77
880.9	911.94
880.98	910.55
881.06	908.94
881.14	907.54
881.21	905.34
881.29	907.75
881.37	914.9
881.45	923.82
881.52	932.96
881.6	943.46
881.68	949.9
881.76	952.46
881.83	953.19
881.91	952.75
881.99	949.25
882.07	942.84
882.15	938.35
882.22	934.49
882.3	931.84
882.38	931.87
882.46	934.45
882.53	935.06
882.61	935.09
882.69	934.76
882.77	934.41
882.85	934.01
882.92	933.06
883	931.56
883.08	933.84
883.16	938.02
883.24	942.37
883.31	947.19
883.39	951.24
883.47	949.1
883.55	945.76
883.63	942.65
883.7	939.87
883.78	938.31
883.86	938.7
883.94	938.28
884.02	937.96
884.09	937.58
884.17	936.99
884.25	936.14
884.33	934.94
884.41	932.9
884.49	933.14
884.56	934.92
884.64	937.6
884.72	940.8
884.8	944.42
884.88	945.87
884.96	946.34
885.03	946.47
885.11	946.36
885.19	945.96
885.27	945.57
885.35	945.62
885.43	945.66
885.5	945.47
885.58	944.32
885.66	940.46
885.74	935.78
885.82	929.81
885.9	922.59
885.97	916.3
886.05	912.32
886.13	908.22
886.21	904.16
886.29	899.22
886.37	894.95
886.45	890.36
886.53	886.29
886.6	883.14
886.68	884.73
886.76	887.21
886.84	890.83
886.92	895.8
887	902.36
887.08	907.31
887.15	911.02
887.23	912.79
887.31	915.62
887.39	918.23
887.47	920.63
887.55	923.84
887.63	928.55
887.71	930.67
887.78	931.73
887.86	932.15
887.94	931.58
888.02	930.79
888.1	930.21
888.18	929.46
888.26	929.74
888.34	930.72
888.41	931.72
888.49	933.2
888.57	935.04
888.65	935.62
888.73	935.64
888.81	935.38
888.89	933.41
888.97	931.84
889.05	931.23
889.13	930.88
889.21	930.93
889.28	931.9
889.36	932.38
889.44	932.28
889.52	931.51
889.6	930.64
889.68	930.29
889.76	930.26
889.84	930.01
889.92	931.26
890	932.94
890.08	934.29
890.16	935.34
890.23	936.71
890.31	937.04
890.39	936.98
890.47	936.5
890.55	936.1
890.63	936.03
890.71	935.52
890.79	933.46
890.87	931.95
890.95	930.52
891.03	928.88
891.11	927.72
891.19	928.06
891.27	928.08
891.34	927.89
891.42	927.51
891.5	926.39
891.58	924.22
891.66	922.5
891.74	920.44
891.82	919.61
891.9	919.52
891.98	919.49
892.06	918.64
892.14	917.91
892.22	915.94
892.3	913.04
892.38	910.08
892.46	907.07
892.54	902.86
892.62	900.5
892.7	899.44
892.78	899.22
892.86	899.44
892.94	900.91
893.02	901.3
893.1	902.21
893.18	904.07
893.26	905.94
893.34	908.15
893.42	910.73
893.49	912.79
893.58	915.4
893.66	918.26
893.73	921.05
893.82	922.56
893.9	921.79
893.97	920.28
894.05	918.23
894.13	914.03
894.21	909.64
894.29	907.09
894.37	904
894.45	901.08
894.53	899.36
894.61	897.76
894.69	896.6
894.77	895.43
894.85	893.7
894.93	894.87
895.02	896.85
895.09	897.87
895.17	900.4
895.26	905.02
895.34	908.45
895.41	911.75
895.5	915.58
895.58	918.36
895.66	920.52
895.74	921.99
895.82	923.17
895.9	924.49
895.98	925.25
896.06	925.2
896.14	924.74
896.22	923.29
896.3	920.54
896.38	917.23
896.46	914.06
896.54	911.1
896.62	909.1
896.7	908.43
896.78	908.51
896.86	908.58
896.94	908.66
897.02	908.4
897.1	906.97
897.18	904.62
897.26	902.22
897.34	900.79
897.42	900.62
897.51	902.03
897.59	904.64
897.67	907.38
897.75	909.16
897.83	910.01
897.91	910.41
897.99	909.94
898.07	908.08
898.15	906.96
898.23	906.74
898.31	907.01
898.39	907.95
898.47	910.24
898.55	912.01
898.63	912.86
898.72	912.71
898.8	912.25
898.88	911.69
898.96	910.68
899.04	909.12
899.12	908.83
899.2	908.91
899.28	908.57
899.36	908.49
899.44	907.95
899.52	902.78
899.6	897.75
899.68	893.55
899.77	889.61
899.85	887.11
899.93	888.47
900.01	889.28
900.09	889.69
900.17	889.84
900.25	889.01
900.33	888.09
900.41	885.61
900.49	881.28
900.58	878.44
900.66	877.42
900.74	876.33
900.82	874.54
900.9	874.27
900.98	870.83
901.06	865.17
901.14	858.95
901.23	854.39
901.31	848.98
901.39	844.94
901.47	842.89
901.55	840.95
901.63	841.14
901.71	843.05
901.79	843.63
901.88	845.97
901.96	849.4
902.04	851.8
902.12	855.27
902.2	861.57
902.28	865.47
902.36	870.34
902.45	875.81
902.53	879.66
902.61	882.93
902.69	885.32
902.77	886.51
902.85	888.51
902.93	890.8
903.02	892.25
903.1	895.33
903.18	898.13
903.26	899.25
903.34	900.07
903.42	901.35
903.51	901.64
903.59	901.81
903.67	901.93
903.75	902.78
903.83	903.63
903.91	904.41
904	905.34
904.08	906.35
904.16	906.4
904.24	906.41
904.32	906.67
904.4	906.85
904.49	907.01
904.57	907.35
904.65	907.4
904.73	906.54
904.81	905.89
904.9	905.25
904.98	904.65
905.06	904.12
905.14	904.2
905.22	904.17
905.3	904.22
905.39	903.99
905.47	903.45
905.55	903.05
905.63	901.98
905.72	897.9
905.8	893.06
905.88	888.28
905.96	884.17
906.04	880.83
906.13	880.38
906.21	880.92
906.29	881.57
906.37	881.34
906.45	880.96
906.54	880.82
906.62	879.97
906.7	878.57
906.78	878.78
906.86	881
906.95	883.98
907.03	888.19
907.11	892.92
907.19	896.21
907.28	897.48
907.36	897.14
907.44	893.92
907.52	889.66
907.61	884.9
907.69	881.22
907.77	878.39
907.85	877.9
907.93	878.11
908.02	879.35
908.1	879.85
908.18	880.22
908.27	880.07
908.35	878.94
908.43	871.21
908.51	863.93
908.59	859.56
908.68	857
908.76	856.11
908.84	861.18
908.93	865.38
909.01	865.4