# nm 	 mW/m2/nm
930.92	849.21
931.01	848.6
931.1	848.02
931.18	848.02
931.27	847.83
931.36	846.75
931.45	845.52
931.53	844.47
931.62	843.23
931.71	842.25
931.79	842.14
931.88	842.68
931.97	842.82
932.05	842.6
932.14	842.38
932.23	841.92
932.31	840.81
932.4	840.5
932.49	841.48
932.58	842.63
932.66	843.99
932.75	845.73
932.84	847.03
932.92	846.95
933.01	846.13
933.1	845.52
933.18	845.13
933.27	844.56
933.36	844.52
933.45	845.11
933.53	845.5
933.62	845.75
933.71	845.98
933.79	846
933.88	845.43
933.97	844.77
934.06	844.44
934.14	843.99
934.23	843.55
934.32	843.71
934.41	843.95
934.49	843.68
934.58	842.42
934.67	840.43
934.75	838.59
934.84	836.57
934.93	834.74
935.02	834.01
935.1	833.98
935.19	833.86
935.28	833.85
935.37	833.63
935.45	832.7
935.54	830.85
935.63	829.42
935.72	829.07
935.8	828.28
935.89	827.71
935.98	828.34
936.07	828.51
936.15	827.81
936.24	828.06
936.33	829.07
936.42	829.59
936.51	830.17
936.59	831.43
936.68	832.81
936.77	833.85
936.86	835.02
936.94	835.94
937.03	836.05
937.12	835.68
937.21	835.58
937.29	835.52
937.38	835.39
937.47	835.56
937.56	835.64
937.65	835.22
937.73	834.76
937.82	834.17
937.91	833.74
938	833.89
938.09	834.61
938.17	835.59
938.26	836.55
938.35	836.52
938.44	835.66
938.53	834.43
938.61	832.87
938.7	831.75
938.79	831.22
938.88	830.54
938.97	829.82
939.05	829.36
939.14	828.7
939.23	827.88
939.32	827.37
939.41	827.45
939.5	827.86
939.59	828.19
939.67	828.11
939.76	827.59
939.85	827.01
939.94	826.41
940.03	825.59
940.11	823.73
940.2	821.24
940.29	818.57
940.38	815.53
940.47	812.78
940.56	810.89
940.65	809.39
940.73	808.36
940.82	807.75
940.91	804.69
941	798.52
941.09	791.61
941.18	785.22
941.27	780.25
941.35	778.08
941.44	779.63
941.53	782.86
941.62	785.15
941.71	785.57
941.8	785.29
941.89	784.68
941.97	785.89
942.06	789.76
942.15	796.18
942.24	804.26
942.33	812.84
942.42	819.88
942.51	823.95
942.6	824.96
942.68	824.51
942.77	823.92
942.86	822.6
942.95	821
943.04	820.07
943.13	819.37
943.22	818.53
943.31	817.1
943.4	814.45
943.48	810.52
943.57	807.03
943.66	804.02
943.75	802.01
943.84	802.11
943.93	803.7
944.02	804.35
944.11	804.81
944.2	804.97
944.29	803.74
944.38	802.29
944.47	802.93
944.55	804.45
944.64	806.6
944.73	809.5
944.82	811.88
944.91	812.18
945	811.69
945.09	811.01
945.18	810.51
945.27	810.54
945.36	811.86
945.45	813.28
945.54	814.71
945.63	816.34
945.72	817.77
945.8	817.98
945.9	817.08
945.98	815.46
946.07	814.24
946.16	813.71
946.25	813.6
946.34	814.41
946.43	815.81
946.52	816.4
946.61	816.17
946.7	815.8
946.79	815.02
946.88	814.49
946.97	814.72
947.06	815.46
947.15	816.44
947.24	817.75
947.33	818.79
947.42	818.99
947.51	818.67
947.6	818.45
947.69	818.32
947.78	818.07
947.87	818
947.96	818.12
948.05	818.19
948.14	818.1
948.23	817.88
948.32	817.69
948.41	817.45
948.5	817.05
948.59	816.92
948.68	817.08
948.77	817.45
948.86	818.07
948.95	818.38
949.04	817.97
949.13	817.24
949.22	816.66
949.31	816.1
949.4	815.78
949.49	816.26
949.58	817.17
949.67	817.47
949.76	817.17
949.85	816.41
949.94	815.25
950.03	813.45
950.12	811.6
950.21	810.52
950.3	809.88
950.39	809.28
950.48	809.17
950.57	808.99
950.66	807.96
950.75	806.91
950.84	806.12
950.93	805.15
951.02	804.54
951.11	805.13
951.2	806.2
951.29	807.1
951.38	808.08
951.47	808.89
951.57	808.65
951.66	807.72
951.75	807.32
951.84	807.16
951.93	807.48
952.02	808.44
952.11	809.56
952.2	809.74
952.29	809.38
952.38	808.57
952.47	807.39
952.56	805.43
952.65	804.45
952.74	804.35
952.84	804.35
952.92	804.34
953.02	804.69
953.11	803.5
953.2	801.5
953.29	799.45
953.38	797.86
953.47	796.48
953.56	796.32
953.65	796.75
953.74	797.09
953.83	796.59
953.92	795.36
954.02	792
954.11	786.84
954.2	779.83
954.29	772.71
954.38	766.3
954.47	761.16
954.56	757.41
954.65	755.35
954.74	753.6
954.84	751.96
954.93	750.71
955.02	750.27
955.11	750.95
955.2	753.74
955.29	758.57
955.38	765.06
955.47	772.21
955.57	779.15
955.66	784.49
955.75	788.18
955.84	790.76
955.93	792.5
956.02	793.85
956.11	795.09
956.21	796.16
956.3	797.28
956.39	798.27
956.48	798.37
956.57	797.23
956.66	795.55
956.76	793.71
956.85	791.7
956.94	790.18
957.03	789.2
957.12	788.89
957.21	788.35
957.3	787.78
957.4	787.18
957.49	786.82
957.58	786.97
957.67	788.09
957.76	789.56
957.85	791.61
957.95	793.82
958.04	795.85
958.13	797.38
958.22	798.46
958.31	799.3
958.41	799.92
958.5	800.1
958.59	799.95
958.68	799.75
958.77	799.59
958.86	799.73
958.96	799.59
959.05	799.46