# nm 	 mW/m2/nm
1537.99	279.49
1538.22	279.32
1538.46	279.94
1538.7	280.09
1538.94	279.05
1539.17	278.77
1539.41	278.03
1539.65	276.3
1539.88	274.31
1540.12	274.74
1540.36	275.08
1540.59	275.1
1540.83	275.94
1541.07	277.61
1541.31	278.19
1541.55	278.23
1541.78	278.62
1542.02	278.86
1542.26	278.85
1542.5	278.79
1542.73	279.04
1542.97	279.69
1543.21	280.19
1543.45	280.64
1543.69	280.97
1543.93	281.38
1544.16	281.38
1544.4	281.36
1544.64	281.33
1544.88	281.57
1545.12	281.67
1545.36	281.7
1545.59	281.58
1545.83	281.4
1546.07	281.04
1546.31	280.51
1546.55	279.19
1546.79	278.03
1547.03	276.47
1547.27	274.71
1547.51	272.93
1547.75	272.85
1547.99	272.63
1548.23	272.97
1548.47	273.83
1548.71	275.23
1548.95	275.48
1549.19	275.29
1549.43	275.12
1549.67	274.5
1549.91	273.75
1550.15	273.16
1550.39	273.39
1550.63	273.52
1550.87	274.38
1551.11	275.16
1551.35	276.18
1551.59	276.78
1551.83	277.32
1552.07	277.47
1552.31	277.35
1552.55	276.25
1552.8	275.01
1553.04	274.05
1553.28	272.59
1553.52	270.97
1553.76	269.99
1554	269.81
1554.24	269.66
1554.48	270.13
1554.73	270.25
1554.97	270.78
1555.21	270.51
1555.45	270.15
1555.69	269.38
1555.94	269.54
1556.18	269.58
1556.42	270.44
1556.66	271.37
1556.91	272.51
1557.15	273.09
1557.39	273.56
1557.63	273.14
1557.88	272.7
1558.12	272.25
1558.36	272.13
1558.6	271.37
1558.85	270.99
1559.09	270.7
1559.33	270.37
1559.58	269.82
1559.82	270.26
1560.06	271.16
1560.31	271.99
1560.55	272.83
1560.79	273.77
1561.04	274.5
1561.28	274.63
1561.52	273.98
1561.77	273.46
1562.01	273.18
1562.26	272.77
1562.5	271.81
1562.74	270.91
1562.99	270.42
1563.23	269.76
1563.48	269.05
1563.72	268.7
1563.97	269.68
1564.21	269.91
1564.46	270.56
1564.7	271.18
1564.94	271.8
1565.19	270.63
1565.44	270.12
1565.68	269.19
1565.93	268.11
1566.17	267.09
1566.42	267.26
1566.66	267.39
1566.91	267.54
1567.15	267.67
1567.4	267.37
1567.64	266.75
1567.89	266.09
1568.14	265.35
1568.38	264.9
1568.63	264.73
1568.87	264.89
1569.12	265.15
1569.37	265.36
1569.61	265.26
1569.86	265.9
1570.1	266.87
1570.35	267.54
1570.6	268.46
1570.84	269.63
1571.09	270.28
1571.34	270.41
1571.59	270.43
1571.83	269.68
1572.08	269.03
1572.33	268.68
1572.57	268.14
1572.82	267.41
1573.07	267.92
1573.32	268.05
1573.56	266.05
1573.81	264.76
1574.06	263.4
1574.31	259.14
1574.56	255.1
1574.8	255.12
1575.05	254.58
1575.3	253.21
1575.55	256.18
1575.8	258.75
1576.04	256.72
1576.29	253.75
1576.54	252.37
1576.79	248.58
1577.04	244.99
1577.29	245.6
1577.54	248.24
1577.79	251.42
1578.03	255.41
1578.28	259.41
1578.53	261.72
1578.78	263.51
1579.03	264.04
1579.28	264.14
1579.53	264.8
1579.78	265.61
1580.03	265.62
1580.28	266
1580.53	265.93
1580.78	265.96
1581.03	265.46
1581.28	263.5
1581.53	261.14
1581.78	258.86
1582.03	256.55
1582.28	254.97
1582.53	255.47
1582.78	256.26
1583.03	257.17
1583.28	258.1
1583.53	258.48
1583.78	257.88
1584.03	258.02
1584.28	258.92
1584.54	259.95
1584.79	260.91
1585.04	261.78
1585.29	261.97
1585.54	261.39
1585.79	260.57
1586.04	260.38
1586.29	259.7
1586.55	258.86
1586.8	257.9
1587.05	257.06
1587.3	255.24
1587.55	254.22
1587.81	252.7
1588.06	250.55
1588.31	246.6
1588.56	243.25
1588.81	239.53
1589.07	236.92
1589.32	235.73
1589.57	237.64
1589.82	239.67
1590.08	241.6
1590.33	243.2
1590.58	244.41
1590.84	244.92
1591.09	246.02
1591.34	248.05
1591.6	250.59
1591.85	253.45
1592.1	256.06
1592.36	258.05
1592.61	259.38
1592.86	260.2
1593.12	260.46
1593.37	260.42
1593.63	260.42
1593.88	260.61
1594.13	260.92
1594.39	261.3
1594.64	261.47
1594.9	260.99
1595.15	259.87
1595.41	257.37
1595.66	254.47
1595.91	251.6
1596.17	249.71
1596.42	248.7
1596.68	250.19
1596.93	252.46
1597.19	255.36
1597.44	257.93
1597.7	259.93
1597.95	260.53
1598.21	260.04
1598.46	258.83
1598.72	257.54
1598.98	256.38
1599.23	255.48
1599.49	255.81
1599.74	255.85
1600	255.48
1600.26	254.73
1600.51	253.6
1600.77	251.73
1601.03	250.85
1601.28	250.63
1601.54	250.87
1601.79	251.44
1602.05	252.41
1602.31	252.66
1602.56	252.84
1602.82	253.19
1603.08	253.49
1603.33	253.46
1603.59	253.61
1603.85	253.32
1604.11	252.61
1604.36	251.79
1604.62	251.3
1604.88	251.2
1605.14	251.52
1605.39	251.52
1605.65	251.24
1605.91	250.51
1606.17	249.36
1606.43	248.19
1606.68	248.17
1606.94	248.81
1607.2	249.97
1607.46	251.23
1607.72	252.25
1607.98	252.65
1608.23	252.69
1608.49	252.32
1608.75	251.09
1609.01	248.96
1609.27	246.33
1609.53	243.17
1609.79	239.97
1610.05	238.36
1610.31	238.45
1610.56	239.29
1610.82	240.98
1611.08	242.75
1611.34	243.79
1611.6	244.26
1611.86	244.56
1612.12	244.81
1612.38	245.62
1612.64	246.54
1612.9	247.27
1613.16	247.66
1613.42	247.76
1613.68	247.53
1613.94	247.26
1614.2	247.17
1614.47	247.09
1614.73	246.48
1614.99	244.99
1615.25	242.81
1615.51	240.46
1615.77	238.31
1616.03	236.83
1616.29	236.69
1616.55	237.49
1616.81	238.61
1617.08	240.53
1617.34	242.58
1617.6	244.19
1617.86	245.54
1618.12	246.38
1618.39	246.4
1618.65	246.39
1618.91	246.17
1619.17	245
1619.43	243.54
1619.7	241.48
1619.96	238.92
1620.22	236.47
1620.48	235.78
1620.74	236.09
1621.01	237.22
1621.27	238.71
1621.53	240.48
1621.8	241.35
1622.06	242.07
1622.32	243.11
1622.59	244.29
1622.85	245.21
1623.11	246.33
1623.38	247.16
1623.64	247.08
1623.9	246.53
1624.17	245.77
1624.43	244.69
1624.69	243.69
1624.96	243.46
1625.22	243.59
1625.49	243.74
1625.75	244.11
1626.02	244.45
1626.28	244.48
1626.55	244.61
1626.81	245.07
1627.07	245.51
1627.34	245.88
1627.6	246.24
1627.87	246.46
1628.13	246.48
1628.4	246.39
1628.67	245.94
1628.93	245.23
1629.19	244.36
1629.46	243.27
1629.73	242.35
1629.99	242.16
1630.26	242.28
1630.52	242.44
1630.79	242.79
1631.06	243.02
1631.32	242.86
1631.59	242.69
1631.85	242.47
1632.12	242.15
1632.39	241.77
1632.65	240.68
1632.92	239.25
1633.19	238.23
1633.45	237.24
1633.72	236.52
1633.99	237.08
1634.25	238.12
1634.52	238.97
1634.79	239.85
1635.06	240.5
1635.32	240.61
1635.59	240.19
1635.86	238.81
1636.13	237.09
1636.39	235.32
1636.66	233.43
1636.93	232.06
1637.2	231.96
1637.46	231.16
1637.73	229.67
1638	228.17
1638.27	226.31
1638.54	224.31
1638.81	224.32
1639.08	225.18
1639.34	226.08
1639.61	227.07
1639.88	227.77
1640.15	227.41
1640.42	226.93
1640.69	226.4
1640.96	225.88
1641.23	225.51
1641.5	225.51
1641.77	225.83
1642.04	226.6
1642.31	227.66
1642.58	228.84
1642.84	229.61
1643.11	229.76
1643.39	229.7
1643.66	229.32
1643.93	228.26
1644.2	227.63
1644.47	227.68
1644.74	227.57
1645.01	227.78
1645.28	228.87
1645.55	229.81
1645.82	230.41
1646.09	231.12
1646.36	231.6
1646.63	231.77
1646.9	231.84
1647.18	231.9
1647.45	232.01
1647.72	232.04
1647.99	231.35
1648.26	230.49
1648.53	229.76
1648.81	228.84
1649.08	228.23
1649.35	228.93
1649.62	229.85
1649.89	230.05
1650.17	230.19
1650.44	230.11
1650.71	229.13
1650.98	228.37
1651.26	228.83
1651.53	229.51
1651.8	229.86
1652.07	230.43
1652.35	230.79
1652.62	230.41
1652.89	230.13
1653.17	230.44
1653.44	230.65
1653.71	230.57
1653.99	230.51
1654.26	230.25
1654.53	229.68
1654.81	229.49
1655.08	229.68
1655.35	229.99
1655.63	230.49
1655.9	230.97
1656.18	231.16
1656.45	231.2
1656.73	231.19
1657	231.11
1657.28	231.02
1657.55	230.97
1657.82	230.91
1658.1	230.59
1658.38	230.05
1658.65	229.5
1658.93	228.96
1659.2	228.63
1659.48	228.82
1659.75	229.34
1660.03	229.98
1660.3	230.66
1660.58	231.16
1660.85	231.38
1661.13	231.32
1661.41	231.06
1661.68	230.65
1661.96	230.14
1662.23	229.61
1662.51	229.04
1662.79	228.58
1663.06	228.32
1663.34	228.08
1663.62	227.89
1663.89	227.79
1664.17	227.6
1664.45	227.28
1664.72	226.84
1665	226.25
1665.28	225.7
1665.56	225.24
1665.83	224.89
1666.11	224.9
1666.39	225.09
1666.67	225.08
1666.94	225
1667.22	224.62
1667.5	223.47
1667.78	222.21
1668.06	221.34
1668.33	220.7
1668.61	220.86
1668.89	222.15
1669.17	223.54
1669.45	224.68
1669.73	225.63
1670.01	225.92
1670.29	225.66
1670.56	225.27
1670.84	224.53
1671.12	223.09
1671.4	221.29
1671.68	219.24
1671.96	217.11
1672.24	215.91
1672.52	216.11
1672.8	217.09
1673.08	218.54
1673.36	220.13
1673.64	221.13
1673.92	221.42
1674.2	221.25
1674.48	220.28
1674.76	218.96
1675.04	217.72
1675.32	216.36
1675.6	215.31
1675.88	215.34
1676.17	215.82
1676.45	216.22
1676.73	217.02
1677.01	217.87
1677.29	218.11
1677.57	218.04
1677.85	217.83
1678.13	217.26
1678.42	216.38
1678.7	215.51
1678.98	214.63
1679.26	213.36
1679.54	211.68
1679.82	209.73
1680.11	207.26
1680.39	204.79
1680.67	203.15
1680.95	202.09
1681.24	201.79
1681.52	202.8
1681.8	204.38
1682.09	205.94
1682.37	207.8
1682.65	209.58
1682.94	210.87
1683.22	212
